# All data in this file is centered around the brightness peak.

# FILENAME = J0246-30_R_ss.fits / Image file name
# PIXSIZE =      0.401074 / Pixel size [arcsec]
# FLUX_UNITS = erg/cm^2/Angstrom/sec / Flux units
# FLUX_SCALE =    1.3721720e-18 / Flux scale [above units / (DN/sec)]
# FLUXCAL =    1 / Flux calibration complete?
# PROFTYPE = brightness / Profile type (isophote/brightness/other)
# NUMGALS =        1 / Number of sources in image
#
# GALINDEX =        1 / Source index (1 - N)
# XCENTER =       1398.00 / X(center) [pixels]
# YCENTER =       1302.00 / Y(center) [pixels]
# AXERAT =       1.15447 / Axial ratio (a/b)
# PA_IMAGE =       138.878 / Position angle, counterclockwise from Up [deg]
# PA =        138.76391 / Position angle, from N towards E [deg]
# SKYLEV =       4.05746 / Sky level [DN/sec]
# ERR_SKY_PIXEL =      0.107011 / Sky RMS (pixel-to-pixel) [DN/sec]
# ERR_SKY_BOX =     0.0129365 / Sky RMS (box-to-box) [DN/sec]
# FLUXRAD_S =       880.787 / Sky aperture radius [pixels]
# FLUXRAD_F =       880.787 / Flux aperture radius [pixels]
# FLUXRAD_C =       1057.58 / Radius where SNR=3 [pixels]
# FLUX_S =        551745.32 / Flux within sky aperture [DN/sec]
# FLUX_F =        551745.32 / Flux within flux aperture [DN/sec]
# FLUX_T =        551781.03 / Total flux [DN/sec]
# ERR_FLUX_S_SKY =       27310.3 / Uncertainty in FLUX_S due to sky [DN/sec]
# ERR_FLUX_F_SKY =       27310.3 / Uncertainty in FLUX_F due to sky [DN/sec]
# ERR_FLUX_T_SKY =        27330.596 / Uncertainty in FLUX_T due to sky [DN/sec]
# RE_F =        202.30980 / Flux aperture half-light radius [pixels]
# RE_T =        202.32843 / Total flux half-light radius [pixels]
# ERR_RE_F_SKY =        12.608109 / Uncertainty in RE_F due to sky [pixels]
# ERR_RE_T_SKY =        12.619292 / Uncertainty in RE_T due to sky [pixels]
# SE_F =        2.1454822 / Face-on surface brightness within RE_F [DN/sec/pixel]
# SE_T =        2.1452260 / Face-on surface brightness within RE_T [DN/sec/pixel]
#  a[pix]  F(interior)     dF       N(good) N(bad) SurfBright  Sigma(SB)    dF(raw)  Sigma(F,sky)
# all Flux and Surface Brightness values are in [DN/sec]
   0.0000      0.00000      0.00000      1      0      74.8309      0.00000      74.8309      0.00000
   4.3281      3476.81      3476.81     50      0      68.2043      13.6473      3410.22     0.659457
   8.6563      10695.4      7218.56    152      0      47.2020      8.07211      7174.70      2.63783
  12.9844      19344.1      8648.68    256      0      33.9321      4.64107      8686.61      5.93511
  17.3126      29305.8      9961.80    360      0      27.9171      5.39682      10050.2      10.5513
  21.6407      41686.9      12381.1    456      0      26.9865      7.29345      12305.8      16.4864
  25.9688      55853.0      14166.1    560      0      25.2633      8.53332      14147.4      23.7404
  30.2970      68661.7      12808.7    658      0      19.3282      5.58649      12718.0      32.3134
  34.6251      80233.3      11571.6    766      0      15.1333      4.96837      11592.1      42.2052
  38.9532      89517.1      9283.77    868      0      10.7129      3.13154      9298.78      53.4160
  43.2814      97105.7      7588.61    968      0      7.83501      1.60867      7584.29      65.9457
  47.6095      103872.      6766.71   1074      0      6.32105     0.964448      6788.81      79.7943
  51.9377      110265.      6392.85   1174      0      5.45252     0.686589      6401.26      94.9618
  56.2658      116511.      6245.29   1276      0      4.90054     0.569941      6253.09      111.448
  60.5939      122606.      6095.47   1378      0      4.42868     0.512765      6102.72      129.254
  64.9221      128581.      5974.73   1478      0      4.04158     0.551516      5973.46      148.378
  69.2502      134393.      5812.05   1576      0      3.67789     0.585051      5796.35      168.821
  73.5783      140057.      5664.16   1682      0      3.36707     0.606445      5663.42      190.583
  77.9065      145601.      5544.27   1790      0      3.10747     0.629942      5562.37      213.664
  82.2346      151037.      5435.35   1882      0      2.88175     0.636558      5423.45      238.064
  86.5628      156315.      5278.75   1996      0      2.65520     0.636917      5299.78      263.783
  90.8909      161503.      5187.73   2080      0      2.48213     0.614312      5162.82      290.820
  95.2190      166580.      5076.71   2196      0      2.31603     0.599060      5086.01      319.177
  99.5472      171523.      4943.14   2292      0      2.15487     0.587674      4938.96      348.853
 103.8753      176366.      4843.28   2400      0      2.02149     0.574723      4851.59      379.847
 108.2034      181116.      4749.36   2487      5      1.90138     0.569560      4728.74      412.160
 112.5316      185779.      4663.58   2561     47      1.79383     0.573502      4593.99      445.793
 116.8597      190385.      4605.90   2655     59      1.70478     0.591174      4526.19      480.744
 121.1879      194993.      4608.19   2736     64      1.64361     0.628112      4496.92      517.014
 125.5160      199516.      4523.00   2848     42      1.55662     0.623666      4433.26      554.603
 129.8441      203941.      4424.76   3018      2      1.47119     0.621418      4440.05      593.511
 134.1723      208346.      4405.22   3108      0      1.41667     0.640486      4403.00      633.738
 138.5004      212683.      4337.10   3206      0      1.35048     0.629604      4329.64      675.284
 142.8286      216985.      4301.84   3298      0      1.29829     0.613377      4281.76      718.148
 147.1567      221291.      4306.30   3402      0      1.26084     0.615821      4289.38      762.332
 151.4848      225593.      4301.46   3554      0      1.22292     0.621966      4346.26      807.834
 155.8130      229895.      4302.36   3604      0      1.18872     0.638405      4284.14      854.656
 160.1411      234180.      4284.65   3744      0      1.15139     0.628528      4310.81      902.796
 164.4693      238497.      4316.66   3812      0      1.12906     0.621753      4303.98      952.255
 168.7974      242845.      4348.38   3932      0      1.10782     0.628704      4355.93      1003.03
 173.1255      247163.      4318.44   4026      0      1.07234     0.606386      4317.23      1055.13
 177.4537      251458.      4294.12   4120      0      1.03997     0.591202      4284.66      1108.55
 181.7818      255736.      4278.43   4216      0      1.01120     0.591683      4263.22      1163.28
 186.1099      259985.      4249.26   4340      0     0.980676     0.580946      4256.13      1219.34
 190.4381      264191.      4205.51   4448      0     0.948265     0.575962      4217.88      1276.71
 194.7662      268397.      4206.24   4518      0     0.927119     0.579401      4188.72      1335.40
 199.0944      272620.      4222.77   4646     12     0.910304     0.608680      4229.27      1395.41
 203.4225      276768.      4148.62   4703     43     0.875088     0.601485      4115.54      1456.74
 207.7506      280856.      4087.40   4784     42     0.844023     0.579903      4037.81      1519.39
 212.0788      284917.      4060.82   4920     28     0.821246     0.561830      4040.53      1583.36
 216.4069      288843.      3926.16   4980     74     0.777970     0.526583      3874.29      1648.64
 220.7350      292680.      3836.94   5031    105     0.745235     0.495226      3749.28      1715.25
 225.0632      296535.      3855.12   5119    141     0.734231     0.503986      3758.53      1783.17
 229.3913      300266.      3731.62   5223    119     0.697169     0.487655      3641.31      1852.41
 233.7195      303812.      3545.55   5435     29     0.650023     0.431346      3532.88      1922.98
 238.0476      307257.      3445.32   5530      0     0.620063     0.399488      3428.95      1994.86
 242.3757      310588.      3330.27   5682      0     0.588555     0.376436      3344.17      2068.06
 246.7039      313790.      3202.01   5750      0     0.555874     0.345215      3196.27      2142.57
 251.0320      316842.      3052.39   5854      0     0.520682     0.321670      3048.07      2218.41
 255.3602      319770.      2928.38   5974      0     0.490989     0.289436      2933.17      2295.57
 259.6883      322600.      2829.83   6090      0     0.466493     0.266497      2840.94      2374.04
 264.0164      325418.      2817.45   6156      0     0.456773     0.268949      2811.90      2453.84
 268.3445      328226.      2808.30   6274      0     0.447888     0.266103      2810.05      2534.95
 272.6727      331034.      2807.99   6372      0     0.440671     0.273208      2807.95      2617.38
 277.0009      333836.      2802.28   6476      0     0.432851     0.274452      2803.15      2701.14
 281.3290      336613.      2777.25   6546      0     0.422335     0.263293      2764.61      2786.20
 285.6571      339374.      2760.64   6686      0     0.413397     0.253177      2763.97      2872.59
 289.9852      342128.      2753.63   6770      0     0.406149     0.239126      2749.63      2960.30
 294.3134      344806.      2678.23   6860      0     0.389175     0.217216      2669.74      3049.33
 298.6415      347450.      2644.27   7036      0     0.378630     0.208919      2664.04      3139.67
 302.9697      350072.      2621.54   7084      0     0.369977     0.209842      2620.92      3231.34
 307.2978      352657.      2585.74   7194      0     0.359746     0.196732      2588.01      3324.32
 311.6259      355198.      2540.25   7266      0     0.348475     0.179974      2532.02      3418.62
 315.9541      357733.      2534.80   7408      0     0.342930     0.177296      2540.43      3514.24
 320.2822      360278.      2545.67   7476      0     0.339715     0.177205      2539.71      3611.19
 324.6104      362845.      2566.40   7582      0     0.337885     0.182506      2561.85      3709.44
 328.9385      365460.      2615.08   7698      0     0.339734     0.261194      2615.27      3809.02
 333.2666      368001.      2540.92   7820      0     0.325784     0.207098      2547.63      3909.92
 337.5948      370486.      2485.57   7900      0     0.314576     0.152884      2485.15      4012.13
 341.9229      372959.      2473.19   7976      0     0.309021     0.144793      2464.75      4115.67
 346.2510      375426.      2466.32   8092     42     0.304289     0.137094      2462.31      4220.52
 350.5792      377870.      2444.00   8126     82     0.297786     0.133261      2419.81      4326.70
 354.9073      380321.      2451.81   8221     81     0.295072     0.133111      2425.79      4434.19
 359.2354      382791.      2469.06   8351     61     0.293548     0.134899      2451.42      4543.00
 363.5636      385302.      2511.75   8507     13     0.295046     0.137101      2509.95      4653.13
 367.8917      387857.      2554.95   8590      0     0.296570     0.137690      2547.54      4764.57
 372.2199      390416.      2558.64   8736      0     0.293524     0.138454      2564.22      4877.34
 376.5480      392955.      2539.15   8808      0     0.287920     0.132364      2536.00      4991.43
 380.8761      395545.      2589.69   8916      0     0.290296     0.135625      2588.28      5106.83
 385.2043      398186.      2641.54   9022      0     0.292761     0.138934      2641.29      5223.56
 389.5324      400843.      2657.16   9136      0     0.291203     0.141383      2660.43      5341.60
 393.8606      403507.      2663.78   9184      0     0.288703     0.138035      2651.44      5460.96
 398.1887      406191.      2684.03   9386      0     0.287718     0.141425      2700.52      5581.64
 402.5168      408908.      2716.30   9410      0     0.288030     0.150211      2710.36      5703.64
 406.8450      411637.      2729.15   9544      0     0.286297     0.143809      2732.42      5826.96
 411.1731      414349.      2712.61   9624      0     0.281552     0.130202      2709.65      5951.60
 415.5013      417056.      2706.95   9764      0     0.278021     0.126163      2714.59      6077.55
 419.8294      419794.      2737.62   9818      0     0.278257     0.132967      2731.92      6204.83
 424.1575      422571.      2777.57   9926      0     0.279423     0.145608      2773.55      6333.42
 428.4857      425373.      2801.95  10038      0     0.279013     0.150719      2800.73      6463.33
 432.8138      428125.      2751.57  10150      0     0.271244     0.140022      2753.12      6594.57
 437.1419      430821.      2695.92  10212      0     0.263111     0.125001      2686.89      6727.12
 441.4701      433501.      2680.53  10364      0     0.259033     0.126154      2684.62      6860.99
 445.7982      436170.      2669.07  10472      0     0.255411     0.126204      2674.67      6996.18
 450.1263      438788.      2617.54  10562      0     0.248059     0.121903      2619.99      7132.68
 454.4545      441374.      2585.56  10682      0     0.242681     0.108795      2592.32      7270.51
 458.7826      443910.      2536.73  10710     28     0.235843     0.103806      2525.88      7409.65
 463.1107      446404.      2493.84  10722    144     0.229679     0.111544      2462.62      7550.12
 467.4389      448866.      2462.36  10663    265     0.224667     0.117610      2395.62      7691.90
 471.7671      451213.      2346.90  10724    374     0.212162     0.101472      2275.23      7835.01
 476.0952      453514.      2300.15  10716    414     0.206036    0.0994528      2207.88      7979.43
 480.4233      455825.      2311.93  10855    407     0.205215     0.123055      2227.61      8125.17
 484.7515      458082.      2256.31  11047    359     0.198485     0.107775      2192.66      8272.22
 489.0796      460273.      2190.77  11041    393     0.191006    0.0967118      2108.89      8420.60
 493.4077      462449.      2176.25  11094    490     0.188067    0.0971699      2086.42      8570.30
 497.7359      464542.      2093.36  11162    542     0.179323    0.0962076      2001.60      8721.32
 502.0640      466579.      2037.11  11199    555     0.172995    0.0914871      1937.38      8873.65
 506.3921      468586.      2006.97  11305    579     0.168973    0.0908654      1910.24      9027.30
 510.7203      470574.      1987.96  11452    546     0.165947    0.0970701      1900.42      9182.28
 515.0484      472528.      1953.72  11525    545     0.161713     0.100301      1863.75      9338.56
 519.3765      474435.      1907.12  11693    509     0.156535    0.0991614      1830.37      9496.17
 523.7047      476296.      1860.63  11753    503     0.151450    0.0915347      1779.99      9655.11
 528.0328      478133.      1837.82  11912    488     0.148364    0.0951674      1767.31      9815.35
 532.3610      479937.      1803.92  11982    478     0.144438    0.0899480      1730.66      9976.92
 536.6891      481708.      1770.70  12136    464     0.140630    0.0896291      1706.69      10139.8
 541.0173      483463.      1755.21  12256    438     0.138279    0.0986751      1694.75      10304.0
 545.3454      485169.      1705.99  12460    362     0.133332    0.0913269      1661.32      10469.5
 549.6735      486861.      1691.74  12540    318     0.131173    0.0879677      1644.91      10636.4
 554.0017      488553.      1691.83  12752    284     0.130150    0.0895848      1659.67      10804.5
 558.3298      490226.      1673.50  12861    243     0.127739    0.0979603      1642.85      10974.0
 562.6580      491854.      1627.73  13008    210     0.123287    0.0912474      1603.72      11144.8
 566.9861      493476.      1622.37  13168    134     0.121937    0.0908360      1605.66      11316.9
 571.3142      495067.      1591.04  13390     20     0.118675    0.0892950      1589.05      11490.4
 575.6423      496608.      1540.92  13480      0     0.114069    0.0902314      1537.64      11665.1
 579.9705      498099.      1490.70  13586      0     0.109524    0.0851059      1488.00      11841.2
 584.2986      499551.      1452.00  13726      0     0.105887    0.0834741      1453.40      12018.6
 588.6268      500994.      1442.52  13784      0     0.104420    0.0844855      1439.33      12197.3
 592.9549      502414.      1420.38  13928      0     0.102065    0.0841817      1421.56      12377.3
 597.2831      503832.      1417.78  14072      6     0.101135    0.0857299      1423.18      12558.7
 601.6112      505202.      1370.54  14074     48    0.0970606    0.0875277      1366.03      12741.4
 605.9393      506545.      1342.53  14164     54    0.0943957    0.0853196      1337.02      12925.4
 610.2675      507839.      1294.56  14278     58    0.0903740    0.0833770      1290.36      13110.7
 614.5956      509126.      1286.65  14350     52    0.0891879    0.0832225      1279.85      13297.3
 618.9237      510395.      1269.43  14439     55    0.0873767    0.0831200      1261.63      13485.2
 623.2518      511658.      1262.07  14585     39    0.0862647    0.0850645      1258.17      13674.5
 627.5800      512924.      1266.08  14754      0    0.0859395    0.0964146      1267.95      13865.1
 631.9081      514162.      1238.46  14814      6    0.0834870    0.0860510      1236.78      14057.0
 636.2363      515356.      1194.25  14913     35    0.0799573    0.0822759      1192.40      14250.2
 640.5645      516511.      1155.08  15000     36    0.0768101    0.0830436      1152.15      14444.7
 644.8926      517660.      1148.20  15090     54    0.0758386    0.0828132      1144.40      14640.6
 649.2207      518783.      1123.87  15176     66    0.0737360    0.0825147      1119.02      14837.8
 653.5489      519884.      1100.55  15261     73    0.0717251    0.0821514      1094.60      15036.3
 657.8770      520962.      1077.78  15398     80    0.0697784    0.0807810      1074.45      15236.1
 662.2051      522027.      1065.18  15346    148    0.0685101    0.0800571      1051.36      15437.2
 666.5333      523105.      1077.99  15582    144    0.0688813    0.0818451      1073.31      15639.7
 670.8614      524165.      1060.12  15556    158    0.0673019    0.0842020      1046.95      15843.4
 675.1895      525185.      1019.40  15730    120    0.0643010    0.0791673      1011.45      16048.5
 679.5176      526193.      1008.39  15877     69    0.0631998    0.0823033      1003.42      16254.9
 683.8458      527167.      974.383  15992     52    0.0606800    0.0793397      970.395      16462.7
 688.1740      528136.      968.374  16118     26    0.0599264    0.0801113      965.894      16671.7
 692.5021      529059.      923.727  16247     39    0.0568047    0.0802543      922.906      16882.1
 696.8303      529942.      882.269  16328     38    0.0539165    0.0767755      880.349      17093.8
 701.1584      530813.      871.279  16412     72    0.0529161    0.0772239      868.459      17306.8
 705.4865      531689.      875.762  16466    106    0.0528607    0.0787149      870.405      17521.1
 709.8146      532574.      885.305  16557    121    0.0531096    0.0810441      879.336      17736.7
 714.1428      533454.      880.206  16589    157    0.0524833    0.0842090      870.645      17953.7
 718.4709      534296.      841.615  16708    166    0.0498791    0.0832493      833.380      18172.0
 722.7990      535069.      773.088  16785    189    0.0455423    0.0763033      764.428      18391.6
 727.1272      535793.      724.222  16961    131    0.0424087    0.0755589      719.293      18612.5
 731.4553      536489.      695.665  17070     78    0.0404951    0.0762240      691.251      18834.7
 735.7834      537161.      672.131  17178     60    0.0388944    0.0750346      668.127      19058.3
 740.1116      537822.      660.896  17420      8    0.0380194    0.0758977      662.299      19283.2
 744.4398      538461.      638.745  17504      0    0.0365315    0.0755703      639.448      19509.4
 748.7679      539093.      632.409  17582      0    0.0359593    0.0768636      632.236      19736.9
 753.0961      539766.      672.849  17700      0    0.0380377    0.0900552      673.268      19965.7
